# radial position[m]	 axial position[m]	 current[A]
1e-08	0.288	6.10394e-08
1e-08	-0.288	9.16249e-09
0.00100001	0.288	2.90724
0.00100001	-0.288	2.90724
0.00200001	0.288	11.6941
0.00200001	-0.288	11.6941
0.00300001	0.288	26.5447
0.00300001	-0.288	26.5447
0.00400001	0.288	47.7259
0.00400001	-0.288	47.7259
0.00500001	0.288	75.5261
0.00500001	-0.288	75.5261
0.00600001	0.288	110.165
0.00600001	-0.288	110.165
0.00700001	0.288	151.67
0.00700001	-0.288	151.67
0.00800001	0.288	199.717
0.00800001	-0.288	199.717
0.00900001	0.288	253.418
0.00900001	-0.288	253.418
0.01	0.288	311.063
0.01	-0.288	311.063
0.01	0.289	240.995
0.01	-0.289	240.995
0.01	0.29	178.949
0.01	-0.29	178.949
0.01	0.291	127.365
0.01	-0.291	127.365
0.01	0.292	87.7121
0.01	-0.292	87.7121
0.01	0.293	60.5558
0.01	-0.293	60.5558
0.01	0.294	45.6502
0.01	-0.294	45.6502
0.01	0.295	42.0619
0.01	-0.295	42.0619
0.01	0.296	48.3116
0.01	-0.296	48.3116
0.01	0.297	62.5288
0.01	-0.297	62.5288
0.01	0.298	82.609
0.01	-0.298	82.609
0.01	0.299	106.367
0.01	-0.299	106.367
0.01	0.3	131.679
0.01	-0.3	131.679
0.01	0.301	156.6
0.01	-0.301	156.6
0.01	0.302	179.471
0.01	-0.302	179.471
0.01	0.303	198.98
0.01	-0.303	198.98
0.01	0.304	214.214
0.01	-0.304	214.214
0.01	0.305	224.664
0.01	-0.305	224.664
0.01	0.306	230.222
0.01	-0.306	230.222
0.01	0.307	231.135
0.01	-0.307	231.135
0.01	0.308	227.958
0.01	-0.308	227.958
0.01	0.309	221.479
0.01	-0.309	221.479
0.01	0.31	212.649
0.01	-0.31	212.649
0.01	0.311	202.497
0.01	-0.311	202.497
0.01	0.312	192.057
0.01	-0.312	192.057
0.01	0.313	182.297
0.01	-0.313	182.297
0.01	0.314	174.065
0.01	-0.314	174.065
0.01	0.315	168.038
0.01	-0.315	168.038
0.01	0.316	164.696
0.01	-0.316	164.696
0.01	0.317	164.307
0.01	-0.317	164.307
0.01	0.318	166.926
0.01	-0.318	166.926
0.01	0.319	172.406
0.01	-0.319	172.406
0.01	0.32	180.427
0.01	-0.32	180.427
0.01	0.321	190.523
0.01	-0.321	190.523
0.01	0.322	202.124
0.01	-0.322	202.124
0.01	0.323	214.595
0.01	-0.323	214.595
0.01	0.324	227.279
0.01	-0.324	227.279
0.01	0.325	239.536
0.01	-0.325	239.536
0.01	0.326	250.778
0.01	-0.326	250.778
0.01	0.327	260.503
0.01	-0.327	260.503
0.01	0.328	268.31
0.01	-0.328	268.31
0.01	0.329	273.924
0.01	-0.329	273.924
0.01	0.33	277.196
0.01	-0.33	277.196
0.01	0.331	278.111
0.01	-0.331	278.111
0.01	0.332	276.774
0.01	-0.332	276.774
0.01	0.333	273.407
0.01	-0.333	273.407
0.01	0.334	268.323
0.01	-0.334	268.323
0.01	0.335	261.911
0.01	-0.335	261.911
0.01	0.336	254.611
0.01	-0.336	254.611
0.01	0.337	246.891
0.01	-0.337	246.891
0.01	0.338	239.221
0.01	-0.338	239.221
0.01	0.339	232.053
0.01	-0.339	232.053
0.01	0.34	225.798
0.01	-0.34	225.798
0.01	0.341	220.814
0.01	-0.341	220.814
0.01	0.342	217.385
0.01	-0.342	217.385
0.01	0.343	215.723
0.01	-0.343	215.723
0.01	0.344	215.952
0.01	-0.344	215.952
0.01	0.345	218.116
0.01	-0.345	218.116
0.01	0.346	222.178
0.01	-0.346	222.178
0.01	0.347	228.024
0.01	-0.347	228.024
0.01	0.348	235.481
0.01	-0.348	235.481
0.01	0.349	244.317
0.01	-0.349	244.317
0.01	0.35	254.262
0.01	-0.35	254.262
0.01	0.351	265.015
0.01	-0.351	265.015
0.01	0.352	276.262
0.01	-0.352	276.262
0.01	0.353	287.682
0.01	-0.353	287.682
0.01	0.354	298.966
0.01	-0.354	298.966
0.01	0.355	309.82
0.01	-0.355	309.82
0.01	0.356	319.975
0.01	-0.356	319.975
0.01	0.357	329.195
0.01	-0.357	329.195
0.01	0.358	337.279
0.01	-0.358	337.279
0.01	0.359	344.066
0.01	-0.359	344.066
0.01	0.36	349.435
0.01	-0.36	349.435
0.01	0.361	353.302
0.01	-0.361	353.302
0.01	0.362	355.622
0.01	-0.362	355.622
0.01	0.363	356.385
0.01	-0.363	356.385
0.01	0.364	355.613
0.01	-0.364	355.613
0.01	0.365	353.354
0.01	-0.365	353.354
0.01	0.366	349.682
0.01	-0.366	349.682
0.01	0.367	344.688
0.01	-0.367	344.688
0.01	0.368	338.48
0.01	-0.368	338.48
0.01	0.369	331.174
0.01	-0.369	331.174
0.01	0.37	322.895
0.01	-0.37	322.895
0.01	0.371	313.773
0.01	-0.371	313.773
0.01	0.372	303.936
0.01	-0.372	303.936
0.01	0.373	293.511
0.01	-0.373	293.511
0.01	0.374	282.621
0.01	-0.374	282.621
0.01	0.375	271.384
0.01	-0.375	271.384
0.01	0.376	259.909
0.01	-0.376	259.909
0.01	0.377	248.299
0.01	-0.377	248.299
0.01	0.378	236.646
0.01	-0.378	236.646
0.01	0.379	225.033
0.01	-0.379	225.033
0.01	0.38	213.535
0.01	-0.38	213.535
0.01	0.381	202.216
0.01	-0.381	202.216
0.01	0.382	191.134
0.01	-0.382	191.134
0.01	0.383	180.334
0.01	-0.383	180.334
0.01	0.384	169.856
0.01	-0.384	169.856
0.01	0.385	159.731
0.01	-0.385	159.731
0.01	0.386	149.984
0.01	-0.386	149.984
0.01	0.387	140.632
0.01	-0.387	140.632
0.01	0.388	131.689
0.01	-0.388	131.689
0.01	0.389	123.162
0.01	-0.389	123.162
0.01	0.39	115.053
0.01	-0.39	115.053
0.01	0.391	107.361
0.01	-0.391	107.361
0.01	0.392	100.082
0.01	-0.392	100.082
0.01	0.393	93.2095
0.01	-0.393	93.2095
0.01	0.394	86.7332
0.01	-0.394	86.7332
0.01	0.395	80.6421
0.01	-0.395	80.6421
0.01	0.396	74.9233
0.01	-0.396	74.9233
0.01	0.397	69.5629
0.01	-0.397	69.5629
0.01	0.398	64.546
0.01	-0.398	64.546
0.01	0.399	59.8573
0.01	-0.399	59.8573
0.01	0.4	55.481
0.01	-0.4	55.481
0.01	0.401	51.4014
0.01	-0.401	51.4014
0.01	0.402	47.6026
0.01	-0.402	47.6026
0.01	0.403	44.0689
0.01	-0.403	44.0689
0.01	0.404	40.785
0.01	-0.404	40.785
0.01	0.405	37.7359
0.01	-0.405	37.7359
0.01	0.406	34.9073
0.01	-0.406	34.9073
0.01	0.407	32.285
0.01	-0.407	32.285
0.01	0.408	29.8557
0.01	-0.408	29.8557
0.011	0.408	35.5475
0.011	-0.408	35.5475
0.012	0.408	41.5556
0.012	-0.408	41.5556
0.013	0.408	47.8208
0.013	-0.408	47.8208
0.014	0.408	54.2803
0.014	-0.408	54.2803
0.015	0.408	60.8677
0.015	-0.408	60.8677
0.016	0.408	67.5133
0.016	-0.408	67.5133
0.017	0.408	74.1451
0.017	-0.408	74.1451
0.018	0.408	80.6886
0.018	-0.408	80.6886
0.019	0.408	87.068
0.019	-0.408	87.068
0.02	0.408	93.2067
0.02	-0.408	93.2067
0.021	0.408	99.0277
0.021	-0.408	99.0277
0.022	0.408	104.455
0.022	-0.408	104.455
0.023	0.408	109.413
0.023	-0.408	109.413
0.024	0.408	113.83
0.024	-0.408	113.83
0.025	0.408	117.636
0.025	-0.408	117.636
0.026	0.408	120.766
0.026	-0.408	120.766
0.027	0.408	123.161
0.027	-0.408	123.161
0.028	0.408	124.766
0.028	-0.408	124.766
0.029	0.408	125.535
0.029	-0.408	125.535
0.03	0.408	125.429
0.03	-0.408	125.429
0.031	0.408	124.421
0.031	-0.408	124.421
0.032	0.408	122.49
0.032	-0.408	122.49
0.033	0.408	119.63
0.033	-0.408	119.63
0.034	0.408	115.844
0.034	-0.408	115.844
0.035	0.408	111.149
0.035	-0.408	111.149
0.036	0.408	105.573
0.036	-0.408	105.573
0.037	0.408	99.1603
0.037	-0.408	99.1603
0.038	0.408	91.966
0.038	-0.408	91.966
0.039	0.408	84.0594
0.039	-0.408	84.0594
0.04	0.408	75.5224
0.04	-0.408	75.5224
0.041	0.408	66.4493
0.041	-0.408	66.4493
0.042	0.408	56.9456
0.042	-0.408	56.9456
0.043	0.408	47.1269
0.043	-0.408	47.1269
0.044	0.408	37.1174
0.044	-0.408	37.1174
0.045	0.408	27.0482
0.045	-0.408	27.0482
0.046	0.408	17.0555
0.046	-0.408	17.0555
0.047	0.408	7.27761
0.047	-0.408	7.27761
0.048	0.408	-2.1466
0.048	-0.408	-2.1466
0.049	0.408	-11.0809
0.049	-0.408	-11.0809
0.05	0.408	-19.3943
0.05	-0.408	-19.3943
0.051	0.408	-26.9638
0.051	-0.408	-26.9638
0.052	0.408	-33.6772
0.052	-0.408	-33.6772
0.053	0.408	-39.4355
0.053	-0.408	-39.4355
0.054	0.408	-44.156
0.054	-0.408	-44.156
0.055	0.408	-47.7741
0.055	-0.408	-47.7741
0.056	0.408	-50.2452
0.056	-0.408	-50.2452
0.057	0.408	-51.5466
0.057	-0.408	-51.5466
0.058	0.408	-51.6784
0.058	-0.408	-51.6784
0.059	0.408	-50.6641
0.059	-0.408	-50.6641
0.06	0.408	-48.5505
0.06	-0.408	-48.5505
0.061	0.408	-45.4073
0.061	-0.408	-45.4073
0.062	0.408	-41.3261
0.062	-0.408	-41.3261
0.063	0.408	-36.4179
0.063	-0.408	-36.4179
0.064	0.408	-30.8118
0.064	-0.408	-30.8118
0.065	0.408	-24.6512
0.065	-0.408	-24.6512
0.066	0.408	-18.0909
0.066	-0.408	-18.0909
0.067	0.408	-11.2933
0.067	-0.408	-11.2933
0.068	0.408	-4.42436
0.068	-0.408	-4.42436
0.069	0.408	2.35068
0.069	-0.408	2.35068
0.07	0.408	8.8714
0.07	-0.408	8.8714
0.071	0.408	14.9865
0.071	-0.408	14.9865
0.072	0.408	20.5576
0.072	-0.408	20.5576
0.073	0.408	25.4631
0.073	-0.408	25.4631
0.074	0.408	29.6011
0.074	-0.408	29.6011
0.075	0.408	32.8924
0.075	-0.408	32.8924
0.076	0.408	35.282
0.076	-0.408	35.282
0.077	0.408	36.7405
0.077	-0.408	36.7405
0.078	0.408	37.2647
0.078	-0.408	37.2647
0.079	0.408	36.8771
0.079	-0.408	36.8771
0.08	0.408	35.6249
0.08	-0.408	35.6249
0.081	0.408	33.5781
0.081	-0.408	33.5781
0.082	0.408	30.8268
0.082	-0.408	30.8268
0.083	0.408	27.4781
0.083	-0.408	27.4781
0.084	0.408	23.6528
0.084	-0.408	23.6528
0.085	0.408	19.4807
0.085	-0.408	19.4807
0.086	0.408	15.0969
0.086	-0.408	15.0969
0.087	0.408	10.6371
0.087	-0.408	10.6371
0.088	0.408	6.23365
0.088	-0.408	6.23365
0.089	0.408	2.01112
0.089	-0.408	2.01112
0.09	0.408	-1.91714
0.09	-0.408	-1.91714
0.091	0.408	-5.45238
0.091	-0.408	-5.45238
0.092	0.408	-8.51305
0.092	-0.408	-8.51305
0.093	0.408	-11.0368
0.093	-0.408	-11.0368
0.094	0.408	-12.9816
0.094	-0.408	-12.9816
0.095	0.408	-14.3267
0.095	-0.408	-14.3267
0.096	0.408	-15.0718
0.096	-0.408	-15.0718
0.097	0.408	-15.2364
0.097	-0.408	-15.2364
0.098	0.408	-14.8581
0.098	-0.408	-14.8581
0.099	0.408	-13.9904
0.099	-0.408	-13.9904
0.1	0.408	-12.7
0.1	-0.408	-12.7
0.101	0.408	-11.0635
0.101	-0.408	-11.0635
0.102	0.408	-9.16413
0.102	-0.408	-9.16413
0.103	0.408	-7.08849
0.103	-0.408	-7.08849
0.104	0.408	-4.92288
0.104	-0.408	-4.92288
0.105	0.408	-2.75012
0.105	-0.408	-2.75012
0.106	0.408	-0.646554
0.106	-0.408	-0.646554
0.107	0.408	1.32051
0.107	-0.408	1.32051
0.108	0.408	3.09492
0.108	-0.408	3.09492
0.109	0.408	4.63323
0.109	-0.408	4.63323
0.11	0.408	5.90566
0.11	-0.408	5.90566
0.111	0.408	6.89635
0.111	-0.408	6.89635
0.112	0.408	7.60318
0.112	-0.408	7.60318
0.113	0.408	8.03681
0.113	-0.408	8.03681
0.114	0.408	8.21936
0.114	-0.408	8.21936
0.115	0.408	8.18254
0.115	-0.408	8.18254
0.116	0.408	7.9655
0.116	-0.408	7.9655
0.117	0.408	7.61235
0.117	-0.408	7.61235
0.118	0.408	7.16965
0.118	-0.408	7.16965
0.119	0.408	6.68381
0.119	-0.408	6.68381
0.12	0.408	6.19864
0.12	-0.408	6.19864
0.121	0.408	5.75307
0.121	-0.408	5.75307
0.122	0.408	5.37925
0.122	-0.408	5.37925
0.123	0.408	5.10098
0.123	-0.408	5.10098
0.124	0.408	4.93262
0.124	-0.408	4.93262
0.125	0.408	4.87852
0.125	-0.408	4.87852
0.126	0.408	4.93297
0.126	-0.408	4.93297
0.127	0.408	5.08063
0.127	-0.408	5.08063
0.128	0.408	5.29752
0.128	-0.408	5.29752
0.129	0.408	5.55238
0.129	-0.408	5.55238
0.13	0.408	5.80844
0.13	-0.408	5.80844
0.131	0.408	6.02553
0.131	-0.408	6.02553
0.132	0.408	6.16227
0.132	-0.408	6.16227
0.133	0.408	6.17849
0.133	-0.408	6.17849
0.134	0.408	6.03749
0.134	-0.408	6.03749
0.135	0.408	5.70827
0.135	-0.408	5.70827
0.136	0.408	5.16752
0.136	-0.408	5.16752
0.137	0.408	4.40123
0.137	-0.408	4.40123
0.138	0.408	3.40595
0.138	-0.408	3.40595
0.139	0.408	2.1896
0.139	-0.408	2.1896
0.14	0.408	0.771735
0.14	-0.408	0.771735
0.141	0.408	-0.816706
0.141	-0.408	-0.816706
0.142	0.408	-2.53413
0.142	-0.408	-2.53413
0.143	0.408	-4.32954
0.143	-0.408	-4.32954
0.144	0.408	-6.14426
0.144	-0.408	-6.14426
0.145	0.408	-7.91397
0.145	-0.408	-7.91397
0.146	0.408	-9.57112
0.146	-0.408	-9.57112
0.147	0.408	-11.0475
0.147	-0.408	-11.0475
0.148	0.408	-12.2769
0.148	-0.408	-12.2769
0.149	0.408	-13.1978
0.149	-0.408	-13.1978
0.15	0.408	-13.7559
0.15	-0.408	-13.7559
0.151	0.408	-13.9067
0.151	-0.408	-13.9067
0.152	0.408	-13.6172
0.152	-0.408	-13.6172
0.153	0.408	-12.8676
0.153	-0.408	-12.8676
0.154	0.408	-11.6526
0.154	-0.408	-11.6526
0.155	0.408	-9.98212
0.155	-0.408	-9.98212
0.156	0.408	-7.88123
0.156	-0.408	-7.88123
0.157	0.408	-5.38985
0.157	-0.408	-5.38985
0.158	0.408	-2.56177
0.158	-0.408	-2.56177
0.159	0.408	0.536761
0.159	-0.408	0.536761
0.16	0.408	3.82897
0.16	-0.408	3.82897
0.161	0.408	7.22977
0.161	-0.408	7.22977
0.162	0.408	10.6484
0.162	-0.408	10.6484
0.163	0.408	13.991
0.163	-0.408	13.991
0.164	0.408	17.1638
0.164	-0.408	17.1638
0.165	0.408	20.0755
0.165	-0.408	20.0755
0.166	0.408	22.6406
0.166	-0.408	22.6406
0.167	0.408	24.7814
0.167	-0.408	24.7814
0.168	0.408	26.4309
0.168	-0.408	26.4309
0.169	0.408	27.5342
0.169	-0.408	27.5342
0.17	0.408	28.0506
0.17	-0.408	28.0506
0.171	0.408	27.9541
0.171	-0.408	27.9541
0.172	0.408	27.2347
0.172	-0.408	27.2347
0.173	0.408	25.8982
0.173	-0.408	25.8982
0.174	0.408	23.9661
0.174	-0.408	23.9661
0.175	0.408	21.4746
0.175	-0.408	21.4746
0.176	0.408	18.4738
0.176	-0.408	18.4738
0.177	0.408	15.026
0.177	-0.408	15.026
0.178	0.408	11.204
0.178	-0.408	11.204
0.179	0.408	7.08894
0.179	-0.408	7.08894
0.18	0.408	2.76842
0.18	-0.408	2.76842
0.181	0.408	-1.66614
0.181	-0.408	-1.66614
0.182	0.408	-6.12159
0.182	-0.408	-6.12159
0.183	0.408	-10.5054
0.183	-0.408	-10.5054
0.184	0.408	-14.7276
0.184	-0.408	-14.7276
0.185	0.408	-18.7032
0.185	-0.408	-18.7032
0.186	0.408	-22.3535
0.186	-0.408	-22.3535
0.187	0.408	-25.6079
0.187	-0.408	-25.6079
0.188	0.408	-28.4051
0.188	-0.408	-28.4051
0.189	0.408	-30.6943
0.189	-0.408	-30.6943
0.19	0.408	-32.4353
0.19	-0.408	-32.4353
0.191	0.408	-33.5997
0.191	-0.408	-33.5997
0.192	0.408	-34.1703
0.192	-0.408	-34.1703
0.193	0.408	-34.1414
0.193	-0.408	-34.1414
0.194	0.408	-33.5181
0.194	-0.408	-33.5181
0.195	0.408	-32.3162
0.195	-0.408	-32.3162
0.196	0.408	-30.5607
0.196	-0.408	-30.5607
0.197	0.408	-28.2852
0.197	-0.408	-28.2852
0.198	0.408	-25.5311
0.198	-0.408	-25.5311
0.199	0.408	-22.346
0.199	-0.408	-22.346
0.2	0.408	-18.7826
0.2	-0.408	-18.7826
0.201	0.408	-14.8977
0.201	-0.408	-14.8977
0.202	0.408	-10.7508
0.202	-0.408	-10.7508
0.203	0.408	-6.40285
0.203	-0.408	-6.40285
0.204	0.408	-1.91545
0.204	-0.408	-1.91545
0.205	0.408	2.65054
0.205	-0.408	2.65054
0.206	0.408	7.23579
0.206	-0.408	7.23579
0.207	0.408	11.7833
0.207	-0.408	11.7833
0.208	0.408	16.2394
0.208	-0.408	16.2394
0.209	0.408	20.5539
0.209	-0.408	20.5539
0.21	0.408	24.6811
0.21	-0.408	24.6811
0.211	0.408	28.58
0.211	-0.408	28.58
0.212	0.408	32.2142
0.212	-0.408	32.2142
0.213	0.408	35.5529
0.213	-0.408	35.5529
0.214	0.408	38.5701
0.214	-0.408	38.5701
0.215	0.408	41.2452
0.215	-0.408	41.2452
0.216	0.408	43.5626
0.216	-0.408	43.5626
0.217	0.408	45.5118
0.217	-0.408	45.5118
0.218	0.408	47.0868
0.218	-0.408	47.0868
0.219	0.408	48.2861
0.219	-0.408	48.2861
0.22	0.408	49.1124
0.22	-0.408	49.1124
0.221	0.408	49.572
0.221	-0.408	49.572
0.222	0.408	49.6748
0.222	-0.408	49.6748
0.223	0.408	49.4335
0.223	-0.408	49.4335
0.224	0.408	48.8637
0.224	-0.408	48.8637
0.225	0.408	47.983
0.225	-0.408	47.983
0.226	0.408	46.811
0.226	-0.408	46.811
0.227	0.408	45.3688
0.227	-0.408	45.3688
0.228	0.408	43.6785
0.228	-0.408	43.6785
0.229	0.408	41.7632
0.229	-0.408	41.7632
0.23	0.408	39.6464
0.23	-0.408	39.6464
0.231	0.408	37.3517
0.231	-0.408	37.3517
0.232	0.408	34.903
0.232	-0.408	34.903
0.233	0.408	32.3234
0.233	-0.408	32.3234
0.234	0.408	29.636
0.234	-0.408	29.636
0.235	0.408	26.863
0.235	-0.408	26.863
0.236	0.408	24.0256
0.236	-0.408	24.0256
0.237	0.408	21.1443
0.237	-0.408	21.1443
0.238	0.408	18.2384
0.238	-0.408	18.2384
0.239	0.408	15.326
0.239	-0.408	15.326
0.24	0.408	12.4242
0.24	-0.408	12.4242
0.241	0.408	9.54848
0.241	-0.408	9.54848
0.242	0.408	6.71328
0.242	-0.408	6.71328
0.243	0.408	3.93164
0.243	-0.408	3.93164
0.244	0.408	1.21531
0.244	-0.408	1.21531
0.245	0.408	-1.42527
0.245	-0.408	-1.42527
0.246	0.408	-3.98089
0.246	-0.408	-3.98089
0.247	0.408	-6.44359
0.247	-0.408	-6.44359
0.248	0.408	-8.80659
0.248	-0.408	-8.80659
0.249	0.408	-11.0642
0.249	-0.408	-11.0642
0.25	0.408	-13.2119
0.25	-0.408	-13.2119
0.251	0.408	-15.2461
0.251	-0.408	-15.2461
0.252	0.408	-17.1642
0.252	-0.408	-17.1642
0.253	0.408	-18.9644
0.253	-0.408	-18.9644
0.254	0.408	-20.6458
0.254	-0.408	-20.6458
0.255	0.408	-22.2082
0.255	-0.408	-22.2082
0.256	0.408	-23.6523
0.256	-0.408	-23.6523
0.257	0.408	-24.979
0.257	-0.408	-24.979
0.258	0.408	-26.1902
0.258	-0.408	-26.1902
0.259	0.408	-27.288
0.259	-0.408	-27.288
0.26	0.408	-28.275
0.26	-0.408	-28.275
0.261	0.408	-29.1542
0.261	-0.408	-29.1542
0.262	0.408	-29.929
0.262	-0.408	-29.929
0.263	0.408	-30.603
0.263	-0.408	-30.603
0.264	0.408	-31.1799
0.264	-0.408	-31.1799
0.265	0.408	-31.6639
0.265	-0.408	-31.6639
0.266	0.408	-32.0591
0.266	-0.408	-32.0591
0.267	0.408	-32.3696
0.267	-0.408	-32.3696
0.268	0.408	-32.5999
0.268	-0.408	-32.5999
0.269	0.408	-32.7543
0.269	-0.408	-32.7543
0.27	0.408	-32.8371
0.27	-0.408	-32.8371
0.271	0.408	-32.8528
0.271	-0.408	-32.8528
0.272	0.408	-32.8056
0.272	-0.408	-32.8056
0.273	0.408	-32.6997
0.273	-0.408	-32.6997
0.274	0.408	-32.5394
0.274	-0.408	-32.5394
0.275	0.408	-32.3286
0.275	-0.408	-32.3286
0.276	0.408	-32.0714
0.276	-0.408	-32.0714
0.277	0.408	-31.7716
0.277	-0.408	-31.7716
0.278	0.408	-31.433
0.278	-0.408	-31.433
0.279	0.408	-31.0589
0.279	-0.408	-31.0589
0.28	0.408	-30.653
0.28	-0.408	-30.653
0.281	0.408	-30.2185
0.281	-0.408	-30.2185
0.282	0.408	-29.7586
0.282	-0.408	-29.7586
0.283	0.408	-29.2761
0.283	-0.408	-29.2761
0.284	0.408	-28.774
0.284	-0.408	-28.774
0.285	0.408	-28.2549
0.285	-0.408	-28.2549
0.286	0.408	-27.7214
0.286	-0.408	-27.7214
0.287	0.408	-27.1757
0.287	-0.408	-27.1757
0.288	0.408	-26.6203
0.288	-0.408	-26.6203
0.289	0.408	-26.057
0.289	-0.408	-26.057
0.29	0.408	-25.488
0.29	-0.408	-25.488
0.291	0.408	-24.9149
0.291	-0.408	-24.9149
0.292	0.408	-24.3395
0.292	-0.408	-24.3395
0.293	0.408	-23.7633
0.293	-0.408	-23.7633
0.294	0.408	-23.1878
0.294	-0.408	-23.1878
0.295	0.408	-22.6142
0.295	-0.408	-22.6142
0.296	0.408	-22.0438
0.296	-0.408	-22.0438
0.297	0.408	-21.4777
0.297	-0.408	-21.4777
0.298	0.408	-20.9167
0.298	-0.408	-20.9167
0.299	0.408	-20.3619
0.299	-0.408	-20.3619
0.3	0.408	-19.8141
0.3	-0.408	-19.8141
0.3	0.407	-20.0719
0.3	-0.407	-20.0719
0.3	0.406	-20.3189
0.3	-0.406	-20.3189
0.3	0.405	-20.5536
0.3	-0.405	-20.5536
0.3	0.404	-20.7745
0.3	-0.404	-20.7745
0.3	0.403	-20.9799
0.3	-0.403	-20.9799
0.3	0.402	-21.1681
0.3	-0.402	-21.1681
0.3	0.401	-21.3373
0.3	-0.401	-21.3373
0.3	0.4	-21.4855
0.3	-0.4	-21.4855
0.3	0.399	-21.6108
0.3	-0.399	-21.6108
0.3	0.398	-21.7109
0.3	-0.398	-21.7109
0.3	0.397	-21.7838
0.3	-0.397	-21.7838
0.3	0.396	-21.827
0.3	-0.396	-21.827
0.3	0.395	-21.8382
0.3	-0.395	-21.8382
0.3	0.394	-21.8148
0.3	-0.394	-21.8148
0.3	0.393	-21.7542
0.3	-0.393	-21.7542
0.3	0.392	-21.6538
0.3	-0.392	-21.6538
0.3	0.391	-21.5109
0.3	-0.391	-21.5109
0.3	0.39	-21.3224
0.3	-0.39	-21.3224
0.3	0.389	-21.0857
0.3	-0.389	-21.0857
0.3	0.388	-20.7976
0.3	-0.388	-20.7976
0.3	0.387	-20.4552
0.3	-0.387	-20.4552
0.3	0.386	-20.0555
0.3	-0.386	-20.0555
0.3	0.385	-19.5953
0.3	-0.385	-19.5953
0.3	0.384	-19.0716
0.3	-0.384	-19.0716
0.3	0.383	-18.4813
0.3	-0.383	-18.4813
0.3	0.382	-17.8213
0.3	-0.382	-17.8213
0.3	0.381	-17.0887
0.3	-0.381	-17.0887
0.3	0.38	-16.2805
0.3	-0.38	-16.2805
0.3	0.379	-15.3938
0.3	-0.379	-15.3938
0.3	0.378	-14.4258
0.3	-0.378	-14.4258
0.3	0.377	-13.374
0.3	-0.377	-13.374
0.3	0.376	-12.2359
0.3	-0.376	-12.2359
0.3	0.375	-11.0093
0.3	-0.375	-11.0093
0.3	0.374	-9.69202
0.3	-0.374	-9.69202
0.3	0.373	-8.2824
0.3	-0.373	-8.2824
0.3	0.372	-6.77892
0.3	-0.372	-6.77892
0.3	0.371	-5.18044
0.3	-0.371	-5.18044
0.3	0.37	-3.48615
0.3	-0.37	-3.48615
0.3	0.369	-1.69568
0.3	-0.369	-1.69568
0.3	0.368	0.190935
0.3	-0.368	0.190935
0.3	0.367	2.17315
0.3	-0.367	2.17315
0.3	0.366	4.2499
0.3	-0.366	4.2499
0.3	0.365	6.41958
0.3	-0.365	6.41958
0.3	0.364	8.67996
0.3	-0.364	8.67996
0.3	0.363	11.0282
0.3	-0.363	11.0282
0.3	0.362	13.4607
0.3	-0.362	13.4607
0.3	0.361	15.9734
0.3	-0.361	15.9734
0.3	0.36	18.561
0.3	-0.36	18.561
0.3	0.359	21.218
0.3	-0.359	21.218
0.3	0.358	23.9376
0.3	-0.358	23.9376
0.3	0.357	26.7125
0.3	-0.357	26.7125
0.3	0.356	29.5344
0.3	-0.356	29.5344
0.3	0.355	32.3941
0.3	-0.355	32.3941
0.3	0.354	35.2816
0.3	-0.354	35.2816
0.3	0.353	38.186
0.3	-0.353	38.186
0.3	0.352	41.0953
0.3	-0.352	41.0953
0.3	0.351	43.9968
0.3	-0.351	43.9968
0.3	0.35	46.8771
0.3	-0.35	46.8771
0.3	0.349	49.7216
0.3	-0.349	49.7216
0.3	0.348	52.515
0.3	-0.348	52.515
0.3	0.347	55.2413
0.3	-0.347	55.2413
0.3	0.346	57.8837
0.3	-0.346	57.8837
0.3	0.345	60.4247
0.3	-0.345	60.4247
0.3	0.344	62.8463
0.3	-0.344	62.8463
0.3	0.343	65.1298
0.3	-0.343	65.1298
0.3	0.342	67.2563
0.3	-0.342	67.2563
0.3	0.341	69.2063
0.3	-0.341	69.2063
0.3	0.34	70.9603
0.3	-0.34	70.9603
0.3	0.339	72.4985
0.3	-0.339	72.4985
0.3	0.338	73.8013
0.3	-0.338	73.8013
0.3	0.337	74.8491
0.3	-0.337	74.8491
0.3	0.336	75.6226
0.3	-0.336	75.6226
0.3	0.335	76.1033
